File: docs/examples/data/parsing/commercial/bel/RGE-343-DUT32-7dCO2_Nitrogen(BelMax).csv
File Name,RGE-343-DUT32-7dCO2_Nitrogen.DAT
Date of measurement,13/01/30
Time of measurement,39:37:15
COMMENT1,RGE-343_DUT-32-7d
COMMENT2,irena
COMMENT3,
COMMENT4,, Vacuum degree before measurement:1.060E-1Pa
Serial number,00218
Version,
Sample weight,1.8400E-02,[g]
Standard volume,27.698,[cm^3]
Dead volume,25.013,[cm^3]
Equilibrium time,0,[SEC]
Adsorptive,N2
Apparatus temperature,0.0000,[C]
Adsorption temperature,77.000,[K]
Saturated vapor pressure,101.33,[kPa]
Adsorptive cross section area,0.1620,[nm^2]
File name of wall adsorption,
Wall adsorption correction value1,
Wall adsorption correction value2,
Number of adsorption data point :,293
Number of desorption data point :,4

No,pi/kPa,pe/kPa,pe2/kPa,p0/kPa,p/p0,Va/cm^3(STP) g^-1
ADS
1,0.0000,3.1344E-02,0.0000,101.33,3.0933E-04,4.9793E-02
3,0.0000,5.1619E-02,0.0000,101.33,5.0941E-04,18.612
5,0.0000,6.8619E-02,0.0000,101.33,6.7718E-04,75.538
7,0.0000,0.1130,0.0000,101.33,1.1154E-03,93.007
9,0.0000,0.1615,0.0000,101.33,1.5934E-03,110.38
11,0.0000,0.2180,0.0000,101.33,2.1511E-03,127.79
13,0.0000,0.2745,0.0000,101.33,2.7088E-03,144.83
15,0.0000,0.3391,0.0000,101.33,3.3461E-03,161.89
17,0.0000,0.3915,0.0000,101.33,3.8639E-03,178.90
19,0.0000,0.4601,0.0000,101.33,4.5411E-03,195.68
21,0.0000,0.5207,0.0000,101.33,5.1387E-03,213.12
23,0.0000,0.5812,0.0000,101.33,5.7361E-03,231.01
25,0.0000,0.6418,0.0000,101.33,6.3337E-03,247.85
27,0.0000,0.7023,0.0000,101.33,6.9311E-03,265.01
29,0.0000,0.7588,0.0000,101.33,7.4888E-03,282.23
31,0.0000,0.8275,0.0000,101.33,8.1660E-03,298.92
33,0.0000,0.8840,0.0000,101.33,8.7237E-03,315.89
35,0.0000,0.9405,0.0000,101.33,9.2814E-03,333.19
37,0.0000,1.0010,0.0000,101.33,9.8786E-03,350.28
39,0.0000,1.0696,0.0000,101.33,1.0556E-02,367.42
41,0.0000,1.1342,0.0000,101.33,1.1193E-02,383.69
43,0.0000,1.1988,0.0000,101.33,1.1831E-02,398.78
45,0.0000,1.2637,0.0000,101.33,1.2471E-02,413.87
47,0.0000,1.3287,0.0000,101.33,1.3113E-02,428.80
49,0.0000,1.3977,0.0000,101.33,1.3794E-02,443.63
51,0.0000,1.4667,0.0000,101.33,1.4474E-02,458.63
53,0.0000,1.5358,0.0000,101.33,1.5156E-02,473.41
55,0.0000,1.6089,0.0000,101.33,1.5878E-02,488.00
57,0.0000,1.6860,0.0000,101.33,1.6639E-02,502.65
59,0.0000,1.7632,0.0000,101.33,1.7401E-02,517.60
61,0.0000,1.8403,0.0000,101.33,1.8161E-02,532.14
63,0.0000,1.9216,0.0000,101.33,1.8964E-02,546.20
65,0.0000,1.9987,0.0000,101.33,1.9725E-02,560.37
67,0.0000,2.0799,0.0000,101.33,2.0526E-02,574.66
69,0.0000,2.1733,0.0000,101.33,2.1448E-02,588.60
71,0.0000,2.2546,0.0000,101.33,2.2250E-02,602.51
73,0.0000,2.3520,0.0000,101.33,2.3211E-02,616.77
75,0.0000,2.4414,0.0000,101.33,2.4094E-02,630.86
77,0.0000,2.5388,0.0000,101.33,2.5055E-02,644.80
79,0.0000,2.6404,0.0000,101.33,2.6057E-02,658.65
81,0.0000,2.7338,0.0000,101.33,2.6979E-02,672.58
83,0.0000,2.8312,0.0000,101.33,2.7940E-02,685.94
85,0.0000,2.9409,0.0000,101.33,2.9023E-02,700.71
87,0.0000,3.0465,0.0000,101.33,3.0065E-02,714.25
89,0.0000,3.1561,0.0000,101.33,3.1147E-02,727.90
91,0.0000,3.2658,0.0000,101.33,3.2229E-02,742.77
93,0.0000,3.3795,0.0000,101.33,3.3351E-02,756.59
95,0.0000,3.4932,0.0000,101.33,3.4474E-02,770.10
97,0.0000,3.5947,0.0000,101.33,3.5475E-02,783.79
99,0.0000,3.7043,0.0000,101.33,3.6557E-02,797.92
101,0.0000,3.8140,0.0000,101.33,3.7639E-02,811.55
103,0.0000,3.9318,0.0000,101.33,3.8802E-02,825.70
105,0.0000,4.0333,0.0000,101.33,3.9804E-02,839.79
107,0.0000,4.1957,0.0000,101.33,4.1406E-02,861.03
109,0.0000,4.3013,0.0000,101.33,4.2448E-02,875.05
111,0.0000,4.4597,0.0000,101.33,4.4012E-02,896.55
113,0.0000,4.6099,0.0000,101.33,4.5494E-02,916.52
115,0.0000,4.7033,0.0000,101.33,4.6416E-02,930.16
117,0.0000,4.8617,0.0000,101.33,4.7979E-02,951.38
119,0.0000,5.0160,0.0000,101.33,4.9502E-02,971.95
121,0.0000,5.1703,0.0000,101.33,5.1024E-02,992.33
123,0.0000,5.3328,0.0000,101.33,5.2628E-02,1012.4
125,0.0000,5.5074,0.0000,101.33,5.4351E-02,1032.2
127,0.0000,5.6861,0.0000,101.33,5.6115E-02,1051.8
129,0.0000,5.8891,0.0000,101.33,5.8118E-02,1071.5
131,0.0000,6.0313,0.0000,101.33,5.9521E-02,1084.8
133,0.0000,6.2424,0.0000,101.33,6.1605E-02,1103.9
135,0.0000,6.4089,0.0000,101.33,6.3248E-02,1116.9
137,0.0000,7.8790,0.0000,101.33,7.7756E-02,1214.6
139,0.0000,8.0780,0.0000,101.33,7.9720E-02,1227.2
141,0.0000,8.3582,0.0000,101.33,8.2485E-02,1245.4
143,0.0000,8.6303,0.0000,101.33,8.5170E-02,1264.6
145,0.0000,8.8902,0.0000,101.33,8.7735E-02,1283.7
147,0.0000,9.1663,0.0000,101.33,9.0460E-02,1302.7
149,0.0000,9.4628,0.0000,101.33,9.3386E-02,1321.5
151,0.0000,9.6902,0.0000,101.33,9.5630E-02,1334.3
153,0.0000,10.052,0.0000,101.33,9.9201E-02,1351.9
155,0.0000,10.344,0.0000,101.33,0.1021,1364.2
157,0.0000,10.665,0.0000,101.33,0.1053,1376.8
159,0.0000,10.982,0.0000,101.33,0.1084,1389.1
161,0.0000,11.335,0.0000,101.33,0.1119,1401.2
163,0.0000,11.692,0.0000,101.33,0.1154,1413.4
165,0.0000,12.046,0.0000,101.33,0.1189,1426.3
167,0.0000,12.415,0.0000,101.33,0.1225,1439.0
169,0.0000,12.777,0.0000,101.33,0.1261,1452.3
171,0.0000,13.170,0.0000,101.33,0.1300,1466.0
173,0.0000,13.577,0.0000,101.33,0.1340,1483.1
175,0.0000,14.019,0.0000,101.33,0.1383,1504.0
177,0.0000,14.433,0.0000,101.33,0.1424,1526.0
179,0.0000,14.876,0.0000,101.33,0.1468,1546.8
181,0.0000,15.355,0.0000,101.33,0.1515,1569.1
183,0.0000,15.855,0.0000,101.33,0.1565,1591.7
185,0.0000,16.306,0.0000,101.33,0.1609,1614.0
187,0.0000,16.821,0.0000,101.33,0.1660,1645.1
189,0.0000,17.382,0.0000,101.33,0.1715,1675.4
191,0.0000,17.877,0.0000,101.33,0.1764,1692.6
193,0.0000,18.450,0.0000,101.33,0.1821,1708.2
195,0.0000,19.014,0.0000,101.33,0.1876,1723.8
197,0.0000,19.664,0.0000,101.33,0.1941,1745.0
199,0.0000,20.228,0.0000,101.33,0.1996,1797.0
201,0.0000,20.890,0.0000,101.33,0.2062,1899.2
203,0.0000,21.532,0.0000,101.33,0.2125,1927.6
205,0.0000,22.214,0.0000,101.33,0.2192,1935.5
207,0.0000,22.913,0.0000,101.33,0.2261,1940.2
209,0.0000,23.623,0.0000,101.33,0.2331,1945.0
211,0.0000,24.375,0.0000,101.33,0.2406,1949.2
213,0.0000,25.122,0.0000,101.33,0.2479,1953.5
215,0.0000,25.910,0.0000,101.33,0.2557,1958.0
217,0.0000,26.738,0.0000,101.33,0.2639,1961.7
219,0.0000,27.575,0.0000,101.33,0.2721,1965.5
221,0.0000,28.428,0.0000,101.33,0.2805,1969.2
223,0.0000,29.313,0.0000,101.33,0.2893,1973.0
225,0.0000,30.218,0.0000,101.33,0.2982,1976.8
227,0.0000,31.173,0.0000,101.33,0.3076,1980.4
229,0.0000,32.156,0.0000,101.33,0.3173,1983.9
231,0.0000,33.142,0.0000,101.33,0.3271,1987.6
233,0.0000,34.162,0.0000,101.33,0.3371,1990.7
235,0.0000,35.242,0.0000,101.33,0.3478,1994.0
237,0.0000,36.355,0.0000,101.33,0.3588,1997.1
239,0.0000,37.471,0.0000,101.33,0.3698,2000.3
241,0.0000,38.645,0.0000,101.33,0.3814,2003.6
243,0.0000,39.847,0.0000,101.33,0.3932,2006.6
245,0.0000,41.098,0.0000,101.33,0.4056,2010.0
247,0.0000,42.377,0.0000,101.33,0.4182,2012.8
249,0.0000,43.717,0.0000,101.33,0.4314,2015.4
251,0.0000,45.065,0.0000,101.33,0.4447,2018.3
253,0.0000,46.470,0.0000,101.33,0.4586,2021.4
255,0.0000,47.965,0.0000,101.33,0.4734,2023.5
257,0.0000,49.459,0.0000,101.33,0.4881,2025.2
259,0.0000,50.929,0.0000,101.33,0.5026,2027.3
261,0.0000,52.688,0.0000,101.33,0.5200,2026.8
263,0.0000,55.230,0.0000,101.33,0.5451,2009.7
265,0.0000,62.816,0.0000,101.33,0.6199,1938.9
267,0.0000,66.727,0.0000,101.33,0.6585,1896.3
269,0.0000,68.522,0.0000,101.33,0.6762,1891.3
271,0.0000,70.751,0.0000,101.33,0.6982,1887.7
273,0.0000,72.952,0.0000,101.33,0.7199,1878.7
275,0.0000,75.385,0.0000,101.33,0.7440,1875.4
277,0.0000,77.557,0.0000,101.33,0.7654,1866.7
279,0.0000,79.750,0.0000,101.33,0.7870,1862.8
281,0.0000,82.414,0.0000,101.33,0.8133,1857.3
283,0.0000,85.200,0.0000,101.33,0.8408,1839.9
285,0.0000,87.547,0.0000,101.33,0.8640,1830.4
287,0.0000,90.552,0.0000,101.33,0.8936,1820.6
289,0.0000,93.488,0.0000,101.33,0.9226,1805.5
291,0.0000,96.120,0.0000,101.33,0.9486,1785.9
293,0.0000,99.442,0.0000,101.33,0.9814,1764.3
DES
1,0.0000,100.51,0.0000,101.33,0.9919,1640.0
2,0.0000,101.40,0.0000,101.33,1.0007,1528.2
3,0.0000,100.28,0.0000,101.33,0.9896,1416.0
4,0.0000,97.395,0.0000,101.33,0.9612,1307.5