File: docs/examples/data/parsing/aif/ar_test_77k.aif
data_data_raw2aifv005
_audit_aif_version 1.0
_exptl_operator 'Volodymyr'
_exptl_date 2020-06-03T00:00:00
_exptl_instrument 'BEL 00218'
_exptl_adsorptive Ar
_exptl_temperature 87.00
_exptl_sample_mass 0.14320
_sample_id 'aus der BOX'
_sample_material_id 'unknown'
_units_temperature K
_units_pressure kPa
_units_mass g
_units_loading 'ml(STP) g-1'

loop_
_adsorp_pressure
_adsorp_p0
_adsorp_amount
0.00012621 101.3 0.00010258
0.00036169 101.3 0.1277
0.00051271 101.3 0.25735
0.00065335 101.3 0.38481
0.00079512 101.3 0.51136
0.00093801 101.3 0.63789
0.0010922 101.3 0.7648
0.0020781 101.3 1.4186
0.0047582 101.3 2.932
0.0076859 101.3 4.4476
0.010666 101.3 5.9556
0.030263 101.3 16.024
0.048555 101.3 26.061
0.065348 101.3 36.088
0.075344 101.3 43.195
0.084489 101.3 50.292
0.093028 101.3 57.417
0.10088 101.3 64.58
0.10869 101.3 71.85
0.12649 101.3 89.689
0.14131 101.3 107.23
0.1545 101.3 124.73
0.16773 101.3 142.27
0.18149 101.3 159.83
0.19707 101.3 177.4
0.21556 101.3 194.95
0.24065 101.3 212.39
0.27723 101.3 229.9
0.33717 101.3 247.3
0.41575 101.3 261.16
0.51024 101.3 271.56
0.6002 101.3 278.63
0.71768 101.3 285.67
0.79372 101.3 289.32
0.87704 101.3 292.96
0.96878 101.3 296.58
1.069 101.3 300.19
1.1801 101.3 303.78
1.2814 101.3 307.43
1.4076 101.3 311.04
1.5501 101.3 314.67
1.7007 101.3 318.17
1.8513 101.3 321.71
2.0426 101.3 325.19
2.2421 101.3 328.7
2.4863 101.3 332.14
2.759 101.3 335.55
3.0684 101.3 338.86
3.4388 101.3 341.96
3.8866 101.3 345.07
4.3873 101.3 347.91
4.9816 101.3 350.64
5.6736 101.3 353.22
6.4837 101.3 355.58
7.3955 101.3 357.72
8.405 101.3 359.69
9.5529 101.3 361.49
10.811 101.3 363.17
11.885 101.3 364.43
12.789 101.3 365.33
13.953 101.3 366.45
14.955 101.3 367.31
15.94 101.3 368.12
16.966 101.3 368.9
18.073 101.3 369.66
19.241 101.3 370.44
20.495 101.3 371.2
21.875 101.3 372.02
23.242 101.3 372.8
24.777 101.3 373.54
26.389 101.3 374.33
28.111 101.3 375.16
29.971 101.3 375.98
31.941 101.3 376.82
34.156 101.3 377.75
36.7 101.3 378.73
39.448 101.3 379.77
42.419 101.3 380.83
45.602 101.3 382.02
49.058 101.3 383.37
52.807 101.3 384.72
56.833 101.3 386.19
59.129 101.3 387.13
61.388 101.3 387.96
63.692 101.3 388.88
66.082 101.3 389.87
68.561 101.3 390.89
71.166 101.3 391.96
73.812 101.3 393.16
76.612 101.3 394.45
79.466 101.3 395.98
82.437 101.3 397.66
85.499 101.3 399.59
88.649 101.3 401.83
91.918 101.3 404.55
95.252 101.3 407.83
98.643 101.3 411.91
100.63 101.3 415.18

loop_
_desorp_pressure
_desorp_p0
_desorp_amount
97.678 101.3 412.38
95.533 101.3 410.38
92.048 101.3 407.82
88.421 101.3 405.53
84.916 101.3 403.58
81.546 101.3 401.94
78.359 101.3 400.44
75.289 101.3 399.22
72.326 101.3 398.08
69.513 101.3 396.96
66.782 101.3 396.05
64.156 101.3 395.17
61.645 101.3 394.33
59.235 101.3 393.56
54.867 101.3 392.2
50.662 101.3 390.84
47.495 101.3 387.67
45.517 101.3 384.85
43.225 101.3 383.43
39.875 101.3 382.01
36.72 101.3 380.76
33.814 101.3 379.65
31.152 101.3 378.58
28.685 101.3 377.57
26.405 101.3 376.57
23.462 101.3 375.17
20.735 101.3 373.74
18.284 101.3 372.32
16.115 101.3 370.84
14.185 101.3 369.36
12.081 101.3 367.47
10.229 101.3 365.4
8.6452 101.3 363.18
7.4973 101.3 361.23
6.5854 101.3 359.26
5.7184 101.3 356.89
5.0142 101.3 354.55
4.3792 101.3 351.82
3.8663 101.3 349.11
3.4714 101.3 346.51
3.162 101.3 344.09
2.9137 101.3 341.8
2.7102 101.3 339.63
2.2543 101.3 333.89
1.8676 101.3 327.51
1.249 101.3 311.89
0.82888 101.3 296.43
0.56022 101.3 281.41
0.40394 101.3 266.17
0.31697 101.3 251.06
0.26509 101.3 235.96
0.23163 101.3 220.8