File: docs/examples/data/parsing/aif/dmof_C2H6_298k.aif
data_data_raw2aifv005
_audit_aif_version 1.0
_exptl_operator 'single gas'
_exptl_date 2019-08-19T00:00:00
_exptl_instrument 'BEL VC-05'
_exptl_adsorptive C2H6
_exptl_temperature 298.15
_exptl_sample_mass 0.817
_sample_id '[Zn2(tm-bdc)2(dabco)]'
_sample_material_id 'DMOF'
_units_temperature K
_units_pressure kPa
_units_mass g
_units_loading 'cm^3(STP) g^-1'

loop_
_adsorp_pressure
_adsorp_p0
_adsorp_amount
0.0405 3928.0 0.3878
1.7808 3928.0 16.157
3.816 3928.0 31.706
6.1866 3928.0 47.107
9.0845 3928.0 61.697
13.119 3928.0 75.729
19.271 3928.0 88.438
28.872 3928.0 98.684
43.095 3928.0 105.75
60.838 3928.0 110.1
81.553 3928.0 112.86
104.33 3928.0 114.63
151.96 3928.0 116.7
201.02 3928.0 117.87
249.14 3928.0 118.56
297.6 3928.0 119.04
343.34 3928.0 119.39
385.74 3928.0 119.63
425.91 3928.0 119.81
463.43 3928.0 119.95
498.47 3928.0 120.07
531.73 3928.0 120.16
562.18 3928.0 120.25
591.87 3928.0 120.28
619.17 3928.0 120.34
644.25 3928.0 120.38
668.02 3928.0 120.41
690.27 3928.0 120.42
710.91 3928.0 120.45
730.58 3928.0 120.48
748.82 3928.0 120.49
765.32 3928.0 120.51
780.97 3928.0 120.53
795.76 3928.0 120.54
809.58 3928.0 120.55
822.65 3928.0 120.56
834.92 3928.0 120.56
846.39 3928.0 120.58
857.18 3928.0 120.6
867.42 3928.0 120.61
877.44 3928.0 120.63
886.65 3928.0 120.63
940.73 3928.0 120.61
994.02 3928.0 120.58
1045.6 3928.0 120.56
1096.7 3928.0 120.52
1146.5 3928.0 120.48
1195.0 3928.0 120.41
1242.7 3928.0 120.38
1288.9 3928.0 120.32
1339.0 3928.0 120.24
1389.0 3928.0 120.14
1438.9 3928.0 120.06
1489.5 3928.0 119.97
1540.0 3928.0 119.86
1590.4 3928.0 119.73
1640.6 3928.0 119.61
1691.0 3928.0 119.49
1741.2 3928.0 119.32
1791.4 3928.0 119.26
1841.6 3928.0 119.09
1892.1 3928.0 118.91
1942.1 3928.0 118.77
1992.5 3928.0 118.58
2042.7 3928.0 118.36
2092.6 3928.0 118.2
2142.5 3928.0 118.02
2192.8 3928.0 117.83
2243.3 3928.0 117.56
2293.4 3928.0 117.36
2343.7 3928.0 117.15
2394.1 3928.0 116.9
2444.4 3928.0 116.62
2494.4 3928.0 116.34
2544.4 3928.0 116.12
2594.3 3928.0 115.88
2644.4 3928.0 115.63
2694.5 3928.0 115.32
2744.7 3928.0 115.02
2794.6 3928.0 114.71
2844.7 3928.0 114.37
2894.8 3928.0 114.02
2944.9 3928.0 113.61
2995.0 3928.0 113.22
3045.0 3928.0 112.77