File: docs/examples/data/parsing/aif/dut-8_etoh_298k.aif
data_data_raw2aifv005
_audit_aif_version 1.0
_exptl_operator 'Leila'
_exptl_date 2020-10-19T00:00:00
_exptl_instrument 'BEL 00348'
_exptl_adsorptive C2H5OH
_exptl_temperature 298.00
_exptl_sample_mass 0.02460
_sample_id 'LA-133_DUT-8(Zn)_isp_cp_EtOH_298K'
_sample_material_id 'DUT-8'
_units_temperature K
_units_pressure kPa
_units_mass g
_units_loading 'ml(STP) g-1'

loop_
_adsorp_pressure
_adsorp_p0
_adsorp_amount
0.0019945 7.7 -0.0078034
0.23801 7.7 1.1631
0.59687 7.7 1.871
1.0656 7.7 2.5434
1.9405 7.7 3.5961
2.9711 7.7 4.7
4.2908 7.7 6.3256
5.7032 7.7 9.4354
6.0951 7.7 39.44
6.1793 7.7 69.495
6.2789 7.7 98.08
6.3927 7.7 125.39
6.511 7.7 151.08
6.6346 7.7 175.23
6.8001 7.7 203.45
6.9745 7.7 229.77
7.129 7.7 253.96
7.255 7.7 276.27
7.4351 7.7 296.53

loop_
_desorp_pressure
_desorp_p0
_desorp_amount
6.9111 7.7 293.6
5.8796 7.7 286.96
4.9299 7.7 279.73
4.1721 7.7 271.25
3.4163 7.7 262.46
2.8374 7.7 255.44
2.3344 7.7 247.89
1.9328 7.7 240.05
1.61 7.7 233.55
1.3136 7.7 227.95
1.0705 7.7 218.16
0.98202 7.7 213.9
0.8743 7.7 206.13
0.7434 7.7 195.96
0.71286 7.7 184.21
0.64378 7.7 172.98
0.58136 7.7 162.96
0.55368 7.7 151.59
0.52315 7.7 140.46
0.48497 7.7 130.4
0.43684 7.7 118.87
0.39802 7.7 111.96
0.36784 7.7 108.85
0.33544 7.7 106.01
0.29902 7.7 96.902
0.27728 7.7 85.95
0.26424 7.7 81.422
0.23607 7.7 74.2
0.21067 7.7 68.737
0.186 7.7 63.949
0.16694 7.7 60.421
0.14644 7.7 56.705
0.13148 7.7 53.981
0.11844 7.7 51.563
0.10471 7.7 49.002